 Al Density=2.6989 Thickness=10. microns
 Photon Energy (eV), Transmission
    10.000      0.00000
    309.90      0.67754E-28
    609.80      0.47245E-05
    909.70      0.15592E-01
    1209.6      0.14899
    1509.5      0.35313
    1809.4      0.37890E-03
    2109.3      0.46499E-02
    2409.2      0.22387E-01
    2709.1      0.62139E-01
    3009.0      0.12375
    3308.9      0.20005
    3608.8      0.28234
    3908.7      0.36373
    4208.6      0.43994
    4508.5      0.50887
    4808.4      0.56987
    5108.3      0.62313
    5408.2      0.66929
    5708.1      0.70911
    6008.0      0.74342
    6307.9      0.77299
    6607.8      0.79850
    6907.7      0.82056
    7207.6      0.83968
    7507.5      0.85631
    7807.4      0.87080
    8107.3      0.88348
    8407.2      0.89461
    8707.1      0.90441
    9007.0      0.91306
    9306.9      0.92072
    9606.8      0.92753
    9906.7      0.93359
    10207.      0.93902
    10507.      0.94387
    10806.      0.94824
    11106.      0.95216
    11406.      0.95571
    11706.      0.95892
    12006.      0.96183
    12306.      0.96448
    12606.      0.96688
    12906.      0.96908
    13206.      0.97109
    13505.      0.97293
    13805.      0.97462
    14105.      0.97617
    14405.      0.97759
    14705.      0.97891
    15005.      0.98012
    15305.      0.98125
    15605.      0.98229
    15905.      0.98326
    16205.      0.98415
    16504.      0.98499
    16804.      0.98576
    17104.      0.98649
    17404.      0.98716
    17704.      0.98779
    18004.      0.98838
    18304.      0.98894
    18604.      0.98945
    18904.      0.98994
    19204.      0.99039
    19504.      0.99082
    19803.      0.99123
    20103.      0.99161
    20403.      0.99196
    20703.      0.99230
    21003.      0.99262
    21303.      0.99292
    21603.      0.99320
    21903.      0.99347
    22203.      0.99372
    22502.      0.99396
    22802.      0.99419
    23102.      0.99440
    23402.      0.99461
    23702.      0.99480
    24002.      0.99498
    24302.      0.99516
    24602.      0.99533
    24902.      0.99548
    25202.      0.99563
    25501.      0.99578
    25801.      0.99591
    26101.      0.99604
    26401.      0.99617
    26701.      0.99629
    27001.      0.99640
    27301.      0.99651
    27601.      0.99661
    27901.      0.99671
    28201.      0.99681
    28500.      0.99690
    28800.      0.99698
    29100.      0.99707
    29400.      0.99715
    29700.      0.99722
    30000.      0.99730
